#i' VisAO Filter Transmission, including CCD47 QE and Aluminum reflectance
#Lambda (um)      Normalized-trans
     0.670000      0.0
     0.670500      4.7889462e-06
     0.671000      8.0160618e-06
     0.671500      1.0807866e-05
     0.672000      1.5663603e-05
     0.672500      2.1623460e-05
     0.673000      3.3058893e-05
     0.673500      4.5803633e-05
     0.674000      6.7609340e-05
     0.674500      9.7374453e-05
     0.675000      0.00014027839
     0.675500      0.00020110923
     0.676000      0.00028502838
     0.676500      0.00040273430
     0.677000      0.00056149191
     0.677500      0.00077962176
     0.678000       0.0010744936
     0.678500       0.0014715464
     0.679000       0.0019887395
     0.679500       0.0026517899
     0.680000       0.0035277743
     0.680500       0.0046534091
     0.681000       0.0060379919
     0.681500       0.0078216459
     0.682000        0.010052990
     0.682500        0.012754759
     0.683000        0.016022027
     0.683500        0.019952960
     0.684000        0.024593201
     0.684500        0.030049561
     0.685000        0.036459895
     0.685500        0.043867976
     0.686000        0.052112765
     0.686500        0.061567450
     0.687000        0.072197820
     0.687500        0.083765779
     0.688000        0.096583419
     0.688500         0.11083930
     0.689000         0.12601073
     0.689500         0.14232315
     0.690000         0.15966504
     0.690500         0.17768468
     0.691000         0.19652531
     0.691500         0.21686314
     0.692000         0.23798181
     0.692500         0.25932583
     0.693000         0.28173620
     0.693500         0.30463160
     0.694000         0.32739384
     0.694500         0.35094304
     0.695000         0.37468457
     0.695500         0.39820549
     0.696000         0.42189396
     0.696500         0.44526213
     0.697000         0.46846646
     0.697500         0.49134517
     0.698000         0.51410892
     0.698500         0.53652320
     0.699000         0.55785198
     0.699500         0.57799687
     0.700000         0.59739427
     0.700500         0.61696398
     0.701000         0.63626623
     0.701500         0.65487528
     0.702000         0.67291819
     0.702500         0.69014025
     0.703000         0.70657403
     0.703500         0.72270366
     0.704000         0.73781066
     0.704500         0.75261759
     0.705000         0.76674946
     0.705500         0.78000825
     0.706000         0.79274174
     0.706500         0.80495365
     0.707000         0.81639329
     0.707500         0.82645446
     0.708000         0.83452235
     0.708500         0.84386850
     0.709000         0.85329131
     0.709500         0.86225404
     0.710000         0.87080645
     0.710500         0.87864793
     0.711000         0.88627403
     0.711500         0.89362086
     0.712000         0.90035301
     0.712500         0.90700740
     0.713000         0.91290850
     0.713500         0.91862544
     0.714000         0.92409823
     0.714500         0.92936394
     0.715000         0.93445213
     0.715500         0.93882296
     0.716000         0.94323948
     0.716500         0.94616568
     0.717000         0.94724067
     0.717500         0.95039408
     0.718000         0.95381036
     0.718500         0.95714244
     0.719000         0.96019253
     0.719500         0.96315272
     0.720000         0.96576406
     0.720500         0.96839125
     0.721000         0.97083039
     0.721500         0.97319329
     0.722000         0.97539935
     0.722500         0.97748957
     0.723000         0.97947575
     0.723500         0.98118407
     0.724000         0.98294576
     0.724500         0.98469942
     0.725000         0.98621175
     0.725500         0.98649892
     0.726000         0.98541725
     0.726500         0.98628049
     0.727000         0.98746385
     0.727500         0.98859831
     0.728000         0.98963942
     0.728500         0.99076560
     0.729000         0.99168541
     0.729500         0.99258292
     0.730000         0.99338631
     0.730500         0.99428482
     0.731000         0.99507158
     0.731500         0.99570753
     0.732000         0.99640066
     0.732500         0.99706690
     0.733000         0.99774191
     0.733500         0.99787928
     0.734000         0.99559620
     0.734500         0.99442566
     0.735000         0.99498550
     0.735500         0.99556042
     0.736000         0.99592411
     0.736500         0.99626091
     0.737000         0.99679462
     0.737500         0.99715670
     0.738000         0.99759688
     0.738500         0.99798255
     0.739000         0.99844358
     0.739500         0.99880538
     0.740000         0.99918267
     0.740500         0.99952749
     0.741000         0.99972293
     0.741500          1.0000000
     0.742000         0.99817907
     0.742500         0.99587921
     0.743000         0.99611282
     0.743500         0.99646144
     0.744000         0.99678027
     0.744500         0.99705103
     0.745000         0.99731582
     0.745500         0.99757592
     0.746000         0.99787786
     0.746500         0.99822403
     0.747000         0.99840689
     0.747500         0.99873968
     0.748000         0.99902767
     0.748500         0.99930873
     0.749000         0.99942908
     0.749500         0.99708222
     0.750000         0.99555244
     0.750500         0.99482742
     0.751000         0.99418689
     0.751500         0.99359710
     0.752000         0.99288122
     0.752500         0.99208406
     0.753000         0.99144486
     0.753500         0.99071468
     0.754000         0.98993070
     0.754500         0.98945575
     0.755000         0.98860451
     0.755500         0.98775767
     0.756000         0.98704486
     0.756500         0.98634817
     0.757000         0.98556838
     0.757500         0.98488885
     0.758000         0.98396733
     0.758500         0.98048153
     0.759000         0.97804426
     0.759500         0.97737328
     0.760000         0.97652025
     0.760500         0.97587581
     0.761000         0.97523518
     0.761500         0.97454267
     0.762000         0.97387266
     0.762500         0.97304908
     0.763000         0.97242416
     0.763500         0.97172255
     0.764000         0.97095134
     0.764500         0.97027515
     0.765000         0.96672997
     0.765500         0.96396690
     0.766000         0.96316003
     0.766500         0.96228039
     0.767000         0.96140862
     0.767500         0.96069756
     0.768000         0.95986567
     0.768500         0.95893660
     0.769000         0.95804486
     0.769500         0.95707452
     0.770000         0.95615969
     0.770500         0.95513668
     0.771000         0.95412225
     0.771500         0.95297482
     0.772000         0.95194124
     0.772500         0.95071543
     0.773000         0.94966926
     0.773500         0.94849412
     0.774000         0.94737109
     0.774500         0.94623928
     0.775000         0.94483313
     0.775500         0.94364292
     0.776000         0.94212881
     0.776500         0.93820491
     0.777000         0.93562089
     0.777500         0.93427724
     0.778000         0.93289527
     0.778500         0.93156903
     0.779000         0.93031792
     0.779500         0.92906799
     0.780000         0.92761831
     0.780500         0.92644930
     0.781000         0.92497876
     0.781500         0.92376674
     0.782000         0.92242640
     0.782500         0.92115995
     0.783000         0.91981265
     0.783500         0.91849295
     0.784000         0.91720455
     0.784500         0.91612341
     0.785000         0.91490341
     0.785500         0.91376454
     0.786000         0.91263806
     0.786500         0.91136108
     0.787000         0.91041983
     0.787500         0.90929864
     0.788000         0.90831831
     0.788500         0.90738449
     0.789000         0.90639893
     0.789500         0.90550261
     0.790000         0.90454368
     0.790500         0.90352350
     0.791000         0.90237520
     0.791500         0.90128298
     0.792000         0.90025111
     0.792500         0.89936814
     0.793000         0.89839393
     0.793500         0.89750030
     0.794000         0.89652719
     0.794500         0.89560404
     0.795000         0.89482559
     0.795500         0.89394248
     0.796000         0.89306846
     0.796500         0.89245984
     0.797000         0.89160625
     0.797500         0.89077056
     0.798000         0.88997573
     0.798500         0.88927360
     0.799000         0.88865678
     0.799500         0.88783437
     0.800000         0.88718625
     0.800500         0.88565007
     0.801000         0.88418036
     0.801500         0.88289960
     0.802000         0.88142108
     0.802500         0.87999637
     0.803000         0.87840143
     0.803500         0.87684316
     0.804000         0.87551555
     0.804500         0.87383624
     0.805000         0.87219444
     0.805500         0.87061202
     0.806000         0.86913288
     0.806500         0.86726256
     0.807000         0.86559949
     0.807500         0.86401563
     0.808000         0.86275586
     0.808500         0.86348216
     0.809000         0.86231887
     0.809500         0.86050559
     0.810000         0.85865340
     0.810500         0.85701852
     0.811000         0.85548726
     0.811500         0.85393678
     0.812000         0.85240863
     0.812500         0.85078834
     0.813000         0.84909823
     0.813500         0.84755080
     0.814000         0.84568581
     0.814500         0.84408273
     0.815000         0.84234922
     0.815500         0.84059386
     0.816000         0.83895774
     0.816500         0.83705716
     0.817000         0.83614830
     0.817500         0.83668639
     0.818000         0.83566182
     0.818500         0.83393679
     0.819000         0.83216043
     0.819500         0.83029760
     0.820000         0.82847929
     0.820500         0.82665320
     0.821000         0.82471139
     0.821500         0.82252960
     0.822000         0.82097065
     0.822500         0.81879970
     0.823000         0.81675926
     0.823500         0.81498591
     0.824000         0.81487415
     0.824500         0.81316478
     0.825000         0.81030336
     0.825500         0.80729862
     0.826000         0.80385564
     0.826500         0.79978916
     0.827000         0.79518570
     0.827500         0.78986427
     0.828000         0.78355268
     0.828500         0.77626280
     0.829000         0.76725166
     0.829500         0.75710287
     0.830000         0.74471965
     0.830500         0.73042204
     0.831000         0.71488113
     0.831500         0.69745255
     0.832000         0.67580689
     0.832500         0.65122386
     0.833000         0.62429628
     0.833500         0.59465500
     0.834000         0.56280849
     0.834500         0.52969574
     0.835000         0.49411156
     0.835500         0.45779989
     0.836000         0.42171657
     0.836500         0.38557070
     0.837000         0.35028335
     0.837500         0.31659205
     0.838000         0.28432369
     0.838500         0.25440778
     0.839000         0.22672827
     0.839500         0.20112487
     0.840000         0.17737395
     0.840500         0.15596715
     0.841000         0.13724719
     0.841500         0.12020703
     0.842000         0.10504465
     0.842500        0.091899599
     0.843000        0.080308517
     0.843500        0.070405808
     0.844000        0.061702067
     0.844500        0.053989016
     0.845000        0.047128981
     0.845500        0.041256058
     0.846000        0.036205077
     0.846500        0.031707279
     0.847000        0.027825644
     0.847500        0.024503660
     0.848000        0.021540682
     0.848500        0.018977251
     0.849000        0.016742318
     0.849500        0.014787853
     0.850000        0.013111188
     0.850500        0.011647861
     0.851000        0.010342652
     0.851500       0.0091781763
     0.852000       0.0081475931
     0.852500       0.0072790343
     0.853000       0.0064822968
     0.853500       0.0057884691
     0.854000       0.0051925408
     0.854500       0.0046676514
     0.855000       0.0041812869
     0.855500       0.0037426173
     0.856000       0.0033679893
     0.856500       0.0030236446
     0.857000       0.0027287277
     0.857500       0.0024748650
     0.858000       0.0022381514
     0.858500       0.0020213304
     0.859000       0.0018191312
     0.859500       0.0016459979
     0.860000       0.0014923378
     0.860500       0.0013451003
     0.861000       0.0012361502
     0.861500       0.0011147263
     0.862000       0.0010193870
     0.862500      0.00093201329
     0.863000      0.00085299972
     0.863500      0.00077415410
     0.864000      0.00071069811
     0.864500      0.00064803671
     0.865000      0.00059182670
     0.865500      0.00054697538
     0.866000      0.00049895017
     0.866500      0.00046216453
     0.867000      0.00041987317
     0.867500      0.00038912663
     0.868000      0.00035589697
     0.868500      0.00032639041
     0.869000      0.00030260999
     0.869500      0.00028015706
     0.870000      0.00025864280
     0.870500      0.00024071733
     0.871000      0.00022251282
     0.871500      0.00020643605
     0.872000      0.00018687376
     0.872500      0.00017511947
     0.873000      0.00016057689
     0.873500      0.00015106302
     0.874000      0.00013754381
     0.874500      0.00012980979
     0.875000      0.00012264996
     0.875500      0.00011144518
     0.876000      0.00010065422
     0.876500      9.6869922e-05
     0.877000      9.1381421e-05
     0.877500      8.4376231e-05
     0.878000      8.1666683e-05
     0.878500      7.0086173e-05
     0.879000      6.6485824e-05
     0.879500      6.6221040e-05
     0.880000      5.9594825e-05
     0.880500      5.7711479e-05
     0.881000      5.2990696e-05
     0.881500      5.1576298e-05
     0.882000      4.4463752e-05
     0.882500      4.3708962e-05
     0.883000      4.1109103e-05
     0.883500      3.9574187e-05
     0.884000      3.9141924e-05
     0.884500      3.2692800e-05
     0.885000      3.2540022e-05
     0.885500      2.9569591e-05
     0.886000      3.0351466e-05
     0.886500      2.6851947e-05
     0.887000      2.6465836e-05
     0.887500      2.5228198e-05
     0.888000      2.1504899e-05
     0.888500      2.0758044e-05
     0.889000      2.1769821e-05
     0.889500      1.8840447e-05
     0.890000      2.2345122e-05
     0.890500      1.6715215e-05
     0.891000      1.5722205e-05
     0.891500      1.9214668e-05
     0.892000      1.5747825e-05
     0.892500      1.5813791e-05
     0.893000      1.7770729e-05
     0.893500      1.4602205e-05
     0.894000      1.4144842e-05
     0.894500      1.2099705e-05
     0.895000      1.1672438e-05
     0.895500      1.2908957e-05
     0.896000      1.1245537e-05
     0.896500      1.1379898e-05
     0.897000      1.1071658e-05
     0.897500      1.2135879e-05
     0.898000      9.7374641e-06
     0.898500      9.9587069e-06
     0.899000      9.6456309e-06
     0.899500      6.5206725e-06
     0.900000      0.0
     