#z' VisAO Filter Transmission, including CCD47 QE and Aluminum reflectance
#Lambda (um)      Normalized-trans
     0.754000     0.00
     0.754500     2.3050607e-06
     0.755000     2.4155019e-06
     0.755500     3.3357357e-06
     0.756000     2.7726981e-06
     0.756500     1.8536624e-06
     0.757000     1.5315346e-06
     0.757500     1.7009144e-06
     0.758000     1.8220682e-06
     0.758500     2.2750939e-06
     0.759000     5.1847776e-06
     0.759500     2.9681719e-06
     0.760000     3.2255391e-06
     0.760500     3.6914035e-06
     0.761000     3.0963900e-06
     0.761500     1.9279199e-06
     0.762000     2.9200550e-06
     0.762500     4.6777290e-06
     0.763000     4.5193326e-06
     0.763500     4.8157354e-06
     0.764000     3.3864706e-06
     0.764500     3.2123456e-06
     0.765000     4.1028445e-06
     0.765500     5.2463771e-06
     0.766000     3.4745544e-06
     0.766500     4.4161125e-06
     0.767000     5.5863144e-06
     0.767500     4.1842140e-06
     0.768000     3.9610171e-06
     0.768500     5.1015217e-06
     0.769000     5.9295959e-06
     0.769500     6.7126373e-06
     0.770000     6.4763007e-06
     0.770500     6.2805643e-06
     0.771000     7.2317312e-06
     0.771500     8.0174119e-06
     0.772000     8.5333618e-06
     0.772500     1.0057682e-05
     0.773000     8.9120767e-06
     0.773500     1.0146820e-05
     0.774000     1.1069717e-05
     0.774500     1.2797292e-05
     0.775000     1.1773983e-05
     0.775500     1.1674483e-05
     0.776000     1.2998102e-05
     0.776500     1.5347249e-05
     0.777000     1.4514754e-05
     0.777500     1.5830044e-05
     0.778000     1.5134975e-05
     0.778500     1.8151507e-05
     0.779000     1.9786794e-05
     0.779500     2.0669443e-05
     0.780000     2.0785843e-05
     0.780500     2.0521936e-05
     0.781000     2.3399517e-05
     0.781500     2.4953627e-05
     0.782000     2.7356422e-05
     0.782500     2.9841311e-05
     0.783000     2.8740816e-05
     0.783500     3.5478287e-05
     0.784000     3.3668515e-05
     0.784500     3.7333657e-05
     0.785000     3.9606274e-05
     0.785500     4.3129222e-05
     0.786000     4.5472183e-05
     0.786500     4.9547056e-05
     0.787000     5.2967788e-05
     0.787500     5.8913903e-05
     0.788000     6.1339590e-05
     0.788500     6.3894079e-05
     0.789000     6.9909494e-05
     0.789500     7.6049737e-05
     0.790000     8.0506240e-05
     0.790500     8.8650160e-05
     0.791000     9.1432536e-05
     0.791500     0.00010004585
     0.792000     0.00010965859
     0.792500     0.00011662347
     0.793000     0.00012594059
     0.793500     0.00013471919
     0.794000     0.00014645144
     0.794500     0.00015889350
     0.795000     0.00017061368
     0.795500     0.00018449089
     0.796000     0.00019919209
     0.796500     0.00021519525
     0.797000     0.00023420593
     0.797500     0.00025218047
     0.798000     0.00027483217
     0.798500     0.00029761448
     0.799000     0.00032444763
     0.799500     0.00035008849
     0.800000     0.00038028256
     0.800500     0.00041567696
     0.801000     0.00045080793
     0.801500     0.00049394380
     0.802000     0.00053735291
     0.802500     0.00058548492
     0.803000     0.00063947164
     0.803500     0.00069656661
     0.804000     0.00076577507
     0.804500     0.00083465769
     0.805000     0.00091128487
     0.805500     0.00099728172
     0.806000      0.0010931515
     0.806500      0.0011988681
     0.807000      0.0013129658
     0.807500      0.0014432418
     0.808000      0.0015883304
     0.808500      0.0017456822
     0.809000      0.0019307255
     0.809500      0.0021265040
     0.810000      0.0023392050
     0.810500      0.0025877088
     0.811000      0.0028534614
     0.811500      0.0031521354
     0.812000      0.0034827803
     0.812500      0.0038672354
     0.813000      0.0042912119
     0.813500      0.0047559501
     0.814000      0.0052855777
     0.814500      0.0058704089
     0.815000      0.0065326691
     0.815500      0.0072927353
     0.816000      0.0081435963
     0.816500      0.0090846201
     0.817000       0.010164319
     0.817500       0.011412530
     0.818000       0.012778800
     0.818500       0.014341398
     0.819000       0.016121938
     0.819500       0.018105962
     0.820000       0.020380796
     0.820500       0.022972300
     0.821000       0.025890479
     0.821500       0.029175622
     0.822000       0.033006937
     0.822500       0.037343928
     0.823000       0.042285589
     0.823500       0.047882847
     0.824000       0.054515085
     0.824500       0.061879529
     0.825000       0.070235416
     0.825500       0.079883161
     0.826000       0.090747093
     0.826500        0.10310885
     0.827000        0.11706645
     0.827500        0.13264109
     0.828000        0.15015681
     0.828500        0.17058203
     0.829000        0.19339914
     0.829500        0.21822671
     0.830000        0.24606197
     0.830500        0.27667629
     0.831000        0.31012786
     0.831500        0.34706914
     0.832000        0.38608436
     0.832500        0.42727433
     0.833000        0.47001783
     0.833500        0.51406435
     0.834000        0.55888237
     0.834500        0.60311339
     0.835000        0.64776274
     0.835500        0.69125000
     0.836000        0.73176605
     0.836500        0.77028800
     0.837000        0.80566978
     0.837500        0.83761650
     0.838000        0.86608888
     0.838500        0.89334511
     0.839000        0.91776976
     0.839500        0.93597203
     0.840000        0.95155589
     0.840500        0.96391554
     0.841000        0.97321447
     0.841500        0.98069843
     0.842000        0.98640694
     0.842500        0.99077819
     0.843000        0.99306015
     0.843500        0.99745127
     0.844000         1.0000000
     0.844500        0.99960647
     0.845000        0.99848659
     0.845500        0.99752430
     0.846000        0.99542055
     0.846500        0.99359565
     0.847000        0.99119106
     0.847500        0.98904015
     0.848000        0.98647327
     0.848500        0.98385809
     0.849000        0.98121350
     0.849500        0.97825402
     0.850000        0.97788453
     0.850500        0.97672406
     0.851000        0.97379274
     0.851500        0.97104133
     0.852000        0.96826938
     0.852500        0.96545936
     0.853000        0.96224726
     0.853500        0.95980050
     0.854000        0.95881278
     0.854500        0.95818954
     0.855000        0.95530808
     0.855500        0.95245231
     0.856000        0.94969065
     0.856500        0.94664039
     0.857000        0.94436360
     0.857500        0.94410495
     0.858000        0.94234869
     0.858500        0.93978481
     0.859000        0.93690321
     0.859500        0.93325766
     0.860000        0.93067848
     0.860500        0.92808219
     0.861000        0.92614200
     0.861500        0.92552286
     0.862000        0.92490135
     0.862500        0.92195610
     0.863000        0.91942196
     0.863500        0.91725898
     0.864000        0.91476410
     0.864500        0.91369035
     0.865000        0.91388468
     0.865500        0.91212766
     0.866000        0.90940709
     0.866500        0.90705706
     0.867000        0.90377388
     0.867500        0.90194808
     0.868000        0.90201387
     0.868500        0.90144195
     0.869000        0.89869803
     0.869500        0.89614003
     0.870000        0.89434627
     0.870500        0.89002048
     0.871000        0.88753814
     0.871500        0.88644876
     0.872000        0.88338923
     0.872500        0.87932588
     0.873000        0.87598902
     0.873500        0.87259756
     0.874000        0.86952029
     0.874500        0.86706050
     0.875000        0.86640385
     0.875500        0.86346702
     0.876000        0.85920074
     0.876500        0.85597374
     0.877000        0.85162733
     0.877500        0.84899431
     0.878000        0.84783924
     0.878500        0.84462621
     0.879000        0.84091811
     0.879500        0.83757133
     0.880000        0.83353453
     0.880500        0.83035549
     0.881000        0.82738430
     0.881500        0.82465512
     0.882000        0.82420894
     0.882500        0.82147942
     0.883000        0.81807094
     0.883500        0.81497633
     0.884000        0.81194714
     0.884500        0.80872846
     0.885000        0.80571466
     0.885500        0.80338888
     0.886000        0.80282403
     0.886500        0.80025613
     0.887000        0.79766270
     0.887500        0.79465958
     0.888000        0.79042403
     0.888500        0.78796731
     0.889000        0.78519132
     0.889500        0.78585640
     0.890000        0.78176766
     0.890500        0.77887758
     0.891000        0.77605697
     0.891500        0.77395615
     0.892000        0.77290869
     0.892500        0.76970714
     0.893000        0.76754154
     0.893500        0.76512453
     0.894000        0.76105250
     0.894500        0.75733969
     0.895000        0.75455276
     0.895500        0.75225432
     0.896000        0.75041285
     0.896500        0.74914523
     0.897000        0.74733380
     0.897500        0.74292194
     0.898000        0.73974274
     0.898500        0.73635404
     0.899000        0.73530373
     0.899500        0.73288000
     0.900000        0.73037981
     0.900500        0.72725624
     0.901000        0.72406623
     0.901500        0.72096194
     0.902000        0.71820720
     0.902500        0.71715398
     0.903000        0.71472284
     0.903500        0.71159326
     0.904000        0.70833169
     0.904500        0.70513998
     0.905000        0.70188607
     0.905500        0.69866174
     0.906000        0.69545507
     0.906500        0.69405824
     0.907000        0.69180953
     0.907500        0.68855424
     0.908000        0.68515900
     0.908500        0.68186637
     0.909000        0.67849594
     0.909500        0.67512383
     0.910000        0.67181637
     0.910500        0.66969539
     0.911000        0.66725886
     0.911500        0.66339486
     0.912000        0.65954033
     0.912500        0.65568487
     0.913000        0.65180485
     0.913500        0.64852385
     0.914000        0.64636023
     0.914500        0.64297012
     0.915000        0.63900865
     0.915500        0.63510204
     0.916000        0.63121158
     0.916500        0.62723258
     0.917000        0.62468577
     0.917500        0.62220282
     0.918000        0.61833032
     0.918500        0.61447232
     0.919000        0.61055578
     0.919500        0.60666814
     0.920000        0.60279605
     0.920500        0.59991803
     0.921000        0.59802082
     0.921500        0.59686159
     0.922000        0.59469644
     0.922500        0.59266873
     0.923000        0.59055830
     0.923500        0.58789976
     0.924000        0.58517226
     0.924500        0.58398203
     0.925000        0.58205787
     0.925500        0.57917851
     0.926000        0.57634553
     0.926500        0.57351920
     0.927000        0.57069606
     0.927500        0.56785073
     0.928000        0.56507983
     0.928500        0.56229035
     0.929000        0.55950192
     0.929500        0.55671474
     0.930000        0.55390480
     0.930500        0.55067775
     0.931000        0.54749038
     0.931500        0.54425223
     0.932000        0.54101293
     0.932500        0.53872180
     0.933000        0.53678532
     0.933500        0.53355031
     0.934000        0.53030199
     0.934500        0.52706246
     0.935000        0.52382850
     0.935500        0.52066993
     0.936000        0.51739574
     0.936500        0.51416688
     0.937000        0.51094501
     0.937500        0.50888489
     0.938000        0.50659512
     0.938500        0.50334519
     0.939000        0.50013337
     0.939500        0.49688138
     0.940000        0.49360399
     0.940500        0.49131686
     0.941000        0.48989508
     0.941500        0.48750718
     0.942000        0.48470483
     0.942500        0.48193729
     0.943000        0.47912120
     0.943500        0.47634957
     0.944000        0.47350542
     0.944500        0.47063820
     0.945000        0.46775469
     0.945500        0.46563190
     0.946000        0.46399505
     0.946500        0.46119030
     0.947000        0.45833492
     0.947500        0.45540038
     0.948000        0.45247648
     0.948500        0.44952288
     0.949000        0.44778603
     0.949500        0.44565692
     0.950000        0.44275342
     0.950500        0.43976725
     0.951000        0.43671281
     0.951500        0.43367854
     0.952000        0.43067977
     0.952500        0.42767025
     0.953000        0.42476055
     0.953500        0.42197105
     0.954000        0.42006411
     0.954500        0.41749823
     0.955000        0.41438752
     0.955500        0.41137591
     0.956000        0.40836698
     0.956500        0.40536808
     0.957000        0.40223012
     0.957500        0.39904549
     0.958000        0.39597012
     0.958500        0.39332711
     0.959000        0.39133524
     0.959500        0.38857586
     0.960000        0.38537855
     0.960500        0.38219151
     0.961000        0.37905313
     0.961500        0.37594029
     0.962000        0.37289711
     0.962500        0.36984010
     0.963000        0.36671470
     0.963500        0.36347950
     0.964000        0.36038774
     0.964500        0.35825734
     0.965000        0.35589108
     0.965500        0.35275282
     0.966000        0.34957637
     0.966500        0.34633382
     0.967000        0.34337506
     0.967500        0.34074741
     0.968000        0.33868418
     0.968500        0.33577769
     0.969000        0.33258131
     0.969500        0.32950470
     0.970000        0.32648762
     0.970500        0.32458196
     0.971000        0.32254581
     0.971500        0.32048627
     0.972000        0.31840459
     0.972500        0.31692211
     0.973000        0.31584818
     0.973500        0.31392024
     0.974000        0.31188229
     0.974500        0.30985244
     0.975000        0.30790707
     0.975500        0.30598394
     0.976000        0.30409588
     0.976500        0.30212863
     0.977000        0.30014014
     0.977500        0.29817040
     0.978000        0.29633266
     0.978500        0.29445054
     0.979000        0.29297110
     0.979500        0.29180854
     0.980000        0.29005897
     0.980500        0.28761265
     0.981000        0.28530779
     0.981500        0.28283806
     0.982000        0.28045571
     0.982500        0.27801217
     0.983000        0.27571950
     0.983500        0.27329563
     0.984000        0.27099932
     0.984500        0.26856325
     0.985000        0.26695270
     0.985500        0.26494762
     0.986000        0.26261254
     0.986500        0.26022004
     0.987000        0.25785001
     0.987500        0.25547395
     0.988000        0.25315270
     0.988500        0.25076528
     0.989000        0.24905187
     0.989500        0.24717556
     0.990000        0.24483724
     0.990500        0.24243483
     0.991000        0.24010563
     0.991500        0.23772590
     0.992000        0.23538936
     0.992500        0.23295906
     0.993000        0.23064216
     0.993500        0.22824313
     0.994000        0.22594557
     0.994500        0.22348033
     0.995000        0.22113470
     0.995500        0.21916874
     0.996000        0.21729513
     0.996500        0.21488830
     0.997000        0.21219030
     0.997500        0.20934992
     0.998000        0.20763242
     0.998500        0.20540335
     0.999000        0.20344671
     0.999500        0.20116875
      1.00000        0.19772676
      1.00050        0.19699151
      1.00100        0.19562623
      1.00150        0.19317815
      1.00200        0.19080417
      1.00250        0.18844668
      1.00300        0.18655605
      1.00350        0.18463196
      1.00400        0.18272864
      1.00450        0.18086532
      1.00500        0.17893810
      1.00550        0.17699684
      1.00600        0.17506326
      1.00650        0.17316217
      1.00700        0.17121612
      1.00750        0.16923533
      1.00800        0.16725503
      1.00850        0.16520422
      1.00900        0.16323427
      1.00950        0.16117106
      1.01000        0.15914683
      1.01050        0.15768519
      1.01100        0.15622865
      1.01150        0.15478560
      1.01200        0.15328792
      1.01250        0.15183126
      1.01300        0.15036000
      1.01350        0.14886425
      1.01400        0.14742345
      1.01450        0.14590521
      1.01500        0.14444283
      1.01550        0.14292277
      1.01600        0.14138375
      1.01650        0.13989728
      1.01700        0.13834616
      1.01750        0.13686333
      1.01800        0.13536440
      1.01850        0.13385396
      1.01900        0.13238748
      1.01950        0.13085644
      1.02000        0.12939046
      1.02050        0.12814350
      1.02100        0.12688994
      1.02150        0.12570473
      1.02200        0.12445437
      1.02250        0.12320689
      1.02300        0.12198369
      1.02350        0.12071624
      1.02400        0.11948243
      1.02450        0.11823119
      1.02500        0.11697677
      1.02550        0.11579940
      1.02600        0.11456374
      1.02650        0.11335316
      1.02700        0.11217823
      1.02750        0.11095467
      1.02800        0.10975919
      1.02850        0.10857410
      1.02900        0.10734641
      1.02950        0.10618729
      1.03000        0.10495757
      1.03050        0.10333845
      1.03100        0.10177116
      1.03150        0.10009533
      1.03200       0.098495391
      1.03250       0.096926797
      1.03300       0.095241642
      1.03350       0.093628225
      1.03400       0.092029533
      1.03450       0.090372807
      1.03500       0.088762682
      1.03550       0.087179147
      1.03600       0.085564093
      1.03650       0.083986661
      1.03700       0.082387939
      1.03750       0.080783820
      1.03800       0.079233945
      1.03850       0.077636256
      1.03900       0.076031649
      1.03950       0.074502181
      1.04000       0.072902314
      1.04050       0.071441796
      1.04100       0.070067074
      1.04150       0.068632039
      1.04200       0.067164422
      1.04250       0.065789493
      1.04300       0.064382191
      1.04350       0.063388734
      1.04400       0.062484370
      1.04450       0.061578877
      1.04500       0.060597195
      1.04550       0.059667344
      1.04600       0.058760860
      1.04650       0.057784707
      1.04700       0.056843569
      1.04750       0.055944685
      1.04800       0.054982452
      1.04850       0.054053485
      1.04900       0.053150276
      1.04950       0.052205329
      1.05000       0.051270944
      1.05050       0.050361030
      1.05100       0.049442781
      1.05150       0.048492886
      1.05200       0.047580723
      1.05250       0.046666644
      1.05300       0.045721074
      1.05350       0.045274004
      1.05400       0.044850272
      1.05450       0.044399177
      1.05500       0.043943159
      1.05550       0.043521019
      1.05600       0.043069390
      1.05650       0.042619884
      1.05700       0.042191827
      1.05750       0.041757304
      1.05800       0.041288950
      1.05850       0.040845682
      1.05900       0.040416428
      1.05950       0.039940057
      1.06000       0.039484287
      1.06050       0.039067950
      1.06100       0.038606953
      1.06150       0.038139477
      1.06200       0.037717258
      1.06250       0.037273238
      1.06300       0.036794609
      1.06350       0.036353701
      1.06400       0.035916538
      1.06450       0.035448099
      1.06500       0.034991429
      1.06550       0.034537627
      1.06600       0.034070664
      1.06650       0.033597837
      1.06700       0.033130229
      1.06750       0.032669404
      1.06800       0.032204881
      1.06850       0.031730876
      1.06900       0.031268889
      1.06950       0.030810111
      1.07000       0.030336470
      1.07050       0.029867748
      1.07100       0.029408623
      1.07150       0.028941304
      1.07200       0.028467601
      1.07250       0.027991488
      1.07300       0.027523204
      1.07350       0.027045335
      1.07400       0.026561774
      1.07450       0.026077621
      1.07500       0.025606865
      1.07550       0.025119782
      1.07600       0.024623539
      1.07650       0.024137415
      1.07700       0.023646520
      1.07750       0.023161341
      1.07800       0.022663853
      1.07850       0.022164629
      1.07900       0.021664886
      1.07950       0.021172580
      1.08000       0.020668177
      1.08050       0.020172407
      1.08100       0.020178642
      1.08150       0.020185686
      1.08200       0.020190614
      1.08250       0.020197919
      1.08300       0.020197720
      1.08350       0.019699001
      1.08400       0.019204595
      1.08450       0.018694688
      1.08500       0.018193022
      1.08550       0.017687460
      1.08600       0.017175583
      1.08650       0.016672062
      1.08700       0.016161381
      1.08750       0.015646881
      1.08800       0.015142800
      1.08850       0.015136472
      1.08900       0.015129059
      1.08950       0.015125374
      1.09000       0.015112584
      1.09050       0.015107140
      1.09100       0.015106977
      1.09150       0.015093142
      1.09200       0.015082563
      1.09250       0.015080520
      1.09300       0.015071476
      1.09350       0.014571240
      1.09400       0.014062796
      1.09450       0.013551652
      1.09500       0.013046206
      1.09550       0.012542201
      1.09600       0.012536443
      1.09650       0.012529107
      1.09700       0.012519035
      1.09750       0.012515331
      1.09800       0.012513282
      1.09850       0.012007592
      1.09900       0.011498690
      1.09950       0.010988447
      1.10000       0.010485196
      1.20000         0.0000000
